wavelength	ScAlN	SiO2	nm	km
400	40.24384	38.56951	5.572279	2.92E-01
402	38.97822	37.42149	5.509209	2.71E-01
404	36.9989	35.39187	5.449704	2.54E-01
406	34.88715	33.96463	5.395342	2.39E-01
408	31.78826	32.09792	5.341262	2.24E-01
410	28.47915	30.54542	5.29125	2.12E-01
412	23.92203	28.48723	5.244595	2.00E-01
414	20.11911	26.86568	5.201213	1.90E-01
416	15.71043	25.40853	5.158926	1.80E-01
418	11.24232	23.75754	5.117064	1.71E-01
420	7.8717	22.25338	5.08015	1.63E-01
422	5.28334	20.88447	5.044519	1.56E-01
424	4.05717	19.58746	5.008751	1.49E-01
426	4.14777	18.55658	4.976461	1.43E-01
428	5.45066	17.78024	4.944397	1.37E-01
430	7.53354	17.07935	4.915719	1.31E-01
432	10.45516	16.54822	4.887444	1.26E-01
434	14.02585	16.4491	4.860158	1.22E-01
436	17.79808	16.40362	4.83602	1.17E-01
438	21.29563	16.49084	4.810354	1.14E-01
440	24.4532	17.65226	4.785422	1.09E-01
442	27.48486	17.85439	4.761088	1.06E-01
444	30.17907	18.57332	4.737557	1.02E-01
446	32.37616	19.266	4.713535	9.85E-02
448	34.67122	20.1281	4.690823	9.52E-02
450	35.69692	20.9296	4.668692	9.12E-02
452	36.54095	22.12997	4.64783	8.86E-02
454	37.15949	23.07122	4.627556	8.59E-02
456	37.42622	24.21046	4.607913	8.34E-02
458	37.17776	25.44593	4.588824	8.11E-02
460	36.6818	26.63757	4.57017	7.89E-02
462	35.66967	27.53519	4.551804	7.69E-02
464	34.20097	28.74151	4.534009	7.48E-02
466	32.69375	29.85883	4.517099	7.24E-02
468	30.87781	30.5859	4.500906	6.99E-02
470	28.38976	31.4309	4.485168	6.76E-02
472	25.8237	32.28899	4.469703	6.60E-02
474	23.10517	33.24241	4.454513	6.46E-02
476	20.27961	34.0097	4.439414	6.31E-02
478	17.14042	34.58281	4.424532	6.15E-02
480	14.15172	35.29095	4.410096	5.99E-02
482	11.10709	35.90528	4.396318	5.85E-02
484	8.2663	36.40332	4.38282	5.71E-02
486	5.93973	36.71848	4.369113	5.57E-02
488	3.96333	37.23015	4.355542	5.42E-02
490	2.42851	37.39822	4.342686	5.28E-02
492	1.55085	37.60016	4.331053	5.16E-02
494	1.33068	37.99428	4.319961	5.04E-02
496	1.69668	37.9753	4.309062	4.92E-02
498	2.62094	38.14631	4.298246	4.81E-02
500	4.1186	38.19249	4.287354	4.70E-02
502	5.99807	38.15178	4.276139	4.61E-02
504	8.1647	38.0152	4.265127	4.51E-02
506	10.71212	37.90997	4.254852	4.39E-02
508	13.21023	37.6589	4.245113	4.27E-02
510	15.84599	37.53012	4.235581	4.16E-02
512	18.46755	36.99152	4.226032	4.08E-02
514	20.91887	36.74476	4.216541	4.01E-02
516	23.19818	36.34865	4.206972	3.93E-02
518	25.37593	35.78254	4.197457	3.85E-02
520	27.45884	35.45536	4.1882	3.77E-02
522	29.22171	34.85373	4.179378	3.69E-02
524	30.80034	34.35369	4.170822	3.61E-02
526	32.12659	33.59624	4.162436	3.55E-02
528	33.2581	33.09499	4.154256	3.49E-02
530	34.18504	32.41716	4.146404	3.43E-02
532	34.95692	31.69086	4.139019	3.37E-02
534	35.50986	30.96049	4.131583	3.31E-02
536	35.89283	30.24363	4.123291	3.22E-02
538	35.97014	29.47759	4.114692	3.13E-02
540	35.87839	28.48504	4.106707	3.05E-02
542	35.68928	27.72632	4.100134	3.02E-02
544	35.39178	26.92131	4.093941	3.01E-02
546	34.72215	26.12319	4.087451	2.97E-02
548	34.14734	25.20609	4.08076	2.93E-02
550	33.17746	24.33518	4.074083	2.88E-02
552	32.2273	23.44892	4.067522	2.83E-02
554	30.99307	22.5607	4.060969	2.77E-02
556	29.62562	21.6074	4.054329	2.71E-02
558	28.16964	20.71745	4.047673	2.65E-02
560	26.63901	19.83708	4.041083	2.59E-02
562	24.89462	18.96736	4.034606	2.52E-02
564	23.05947	18.06056	4.028394	2.46E-02
566	21.22265	17.20517	4.022831	2.45E-02
568	19.24728	16.40237	4.017609	2.47E-02
570	17.25445	15.61799	4.012235	2.46E-02
572	15.29562	14.8394	4.006277	2.41E-02
574	13.29776	14.13405	4.000216	2.35E-02
576	11.32921	13.41087	3.99426	2.31E-02
578	9.48143	12.77255	3.988476	2.29E-02
580	7.76114	12.17732	3.982928	2.26E-02
582	6.15089	11.61557	3.977722	2.22E-02
584	4.74037	11.07007	3.972751	2.18E-02
586	3.50479	10.6202	3.96801	2.18E-02
588	2.50514	10.2005	3.963423	2.19E-02
590	1.77598	9.8547	3.95888	2.18E-02
592	1.29722	9.5763	3.95428	2.14E-02
594	1.08136	9.30016	3.94968	2.08E-02
596	1.1266	9.12471	3.945071	2.02E-02
598	1.42213	8.95414	3.940468	1.96E-02
600	1.95624	8.86091	3.935887	1.93E-02
602	2.72302	8.80752	3.931345	1.91E-02
604	3.68514	8.80695	3.926842	1.91E-02
606	4.79039	8.87906	3.922394	1.91E-02
608	6.05515	8.98647	3.917994	1.91E-02
610	7.40026	9.15386	3.913623	1.89E-02
612	8.85604	9.34593	3.909267	1.85E-02
614	10.35169	9.58856	3.904972	1.80E-02
616	11.78678	9.8235	3.900745	1.77E-02
618	13.34458	10.17771	3.896644	1.74E-02
620	14.86917	10.4878	3.892764	1.71E-02
622	16.49093	10.87109	3.889205	1.69E-02
624	18.04983	11.28845	3.885801	1.66E-02
626	19.53469	11.71015	3.882427	1.62E-02
628	21.00553	12.16047	3.8791	1.59E-02
630	22.37429	12.60521	3.875904	1.57E-02
632	23.75084	13.14646	3.872926	1.57E-02
634	25.03893	13.67526	3.869798	1.58E-02
636	26.23205	14.25763	3.866002	1.56E-02
638	27.45289	14.89806	3.861829	1.53E-02
640	28.52965	15.43297	3.85774	1.51E-02
642	29.39701	15.98277	3.854083	1.50E-02
644	30.25293	16.57325	3.850673	1.49E-02
646	30.98751	17.22175	3.847639	1.47E-02
648	31.66968	17.7215	3.844795	1.44E-02
650	32.25319	18.35858	3.841835	1.42E-02
652	32.75691	18.91438	3.838462	1.40E-02
654	33.18376	19.54169	3.835151	1.39E-02
656	33.52567	20.16564	3.832441	1.38E-02
658	33.78202	20.70254	3.829991	1.37E-02
660	33.93776	21.24073	3.827192	1.35E-02
662	34.07446	21.83278	3.823494	1.32E-02
664	34.13161	22.3529	3.819831	1.29E-02
666	34.07425	22.89664	3.817198	1.28E-02
668	33.99553	23.38009	3.815062	1.29E-02
670	33.78987	23.93084	3.812486	1.28E-02
672	33.52409	24.40983	3.808671	1.24E-02
674	33.22969	24.89325	3.804801	1.20E-02
676	32.88131	25.44134	3.801831	1.21E-02
678	32.4499	25.8524	3.799471	1.25E-02
680	31.97801	26.36402	3.797202	1.26E-02
682	31.41082	26.85236	3.794689	1.22E-02
684	30.85304	27.15023	3.792159	1.17E-02
686	30.14073	27.59789	3.789671	1.16E-02
688	29.44943	28.01324	3.787198	1.16E-02
690	28.62432	28.45867	3.784695	1.15E-02
692	27.82283	28.79772	3.782136	1.08E-02
694	26.96739	29.09593	3.779506	1.02E-02
696	26.01861	29.48998	3.776661	1.02E-02
698	25.11253	29.73202	3.773779	1.06E-02
700	24.09002	30.00315	3.771168	1.09E-02
702	23.11293	30.336	3.76913	1.10E-02
704	22.04608	30.65697	3.767129	1.10E-02
706	20.91197	30.97694	3.764552	1.08E-02
708	19.84976	31.24398	3.761756	1.05E-02
710	18.72354	31.40984	3.759381	1.01E-02
712	17.61983	31.5865	3.75799	9.75E-03
714	16.48156	31.81676	3.756651	9.46E-03
716	15.35188	32.0523	3.754559	9.43E-03
718	14.21794	32.30852	3.751962	9.57E-03
720	13.08528	32.52277	3.749305	9.69E-03
722	11.97706	32.66344	3.74687	9.64E-03
724	10.90443	32.65146	3.744499	9.66E-03
726	9.8343	32.82119	3.74205	1.02E-02
728	8.82777	33.00728	3.739747	1.08E-02
730	7.86086	33.12231	3.73801	1.08E-02
732	6.93247	33.11841	3.737282	9.71E-03
734	6.07171	33.27447	3.736578	8.50E-03
736	5.26328	33.30247	3.734933	8.22E-03
738	4.52802	33.40483	3.732651	8.52E-03
740	3.8486	33.44425	3.730274	8.79E-03
742	3.26462	33.40635	3.728162	8.63E-03
744	2.74955	33.49631	3.726043	8.32E-03
746	2.31312	33.46012	3.723621	7.77E-03
748	1.94362	33.41165	3.721251	7.20E-03
750	1.68087	33.49569	3.719589	6.95E-03
752	1.49534	33.52113	3.71931	7.34E-03
754	1.39618	33.47221	3.718999	7.85E-03
756	1.37977	33.41372	3.717312	8.14E-03
758	1.44401	33.36476	3.71466	8.19E-03
760	1.58009	33.16955	3.711678	8.04E-03
762	1.81001	33.1654	3.708672	7.67E-03
764	2.10264	33.0748	3.70618	7.17E-03
766	2.47882	33.01292	3.705558	6.50E-03
768	2.90885	32.89544	3.705832	5.89E-03
770	3.40037	32.82309	3.705388	5.68E-03
772	3.96487	32.61908	3.702825	6.27E-03
774	4.58118	32.52531	3.699871	6.94E-03
776	5.22175	32.42351	3.69763	7.04E-03
778	5.92807	32.17701	3.695926	6.75E-03
780	6.65961	32.05083	3.694398	6.30E-03
782	7.43134	31.91721	3.692906	5.79E-03
784	8.22308	31.78074	3.691379	5.45E-03
786	9.03599	31.51859	3.689545	5.62E-03
788	9.87305	31.36136	3.687587	6.19E-03
790	10.7034	31.20166	3.685773	7.03E-03
792	11.57419	31.03322	3.684309	8.14E-03
794	12.469	30.7872	3.68317	8.90E-03
796	13.34785	30.59194	3.682779	8.32E-03
798	14.2264	30.30753	3.682615	6.91E-03
800	15.06253	30.13644	3.681818	5.48E-03
802	15.9082	29.92684	3.67956	4.61E-03
804	16.75075	29.65987	3.677101	4.21E-03
806	17.62627	29.34661	3.675498	4.81E-03
808	18.39445	29.13632	3.674399	5.94E-03
810	19.20985	28.77552	3.67314	6.88E-03
812	19.99593	28.53359	3.671235	7.04E-03
814	20.77991	28.3335	3.669333	6.83E-03
816	21.52367	28.01625	3.667993	6.15E-03
818	22.22297	27.69255	3.66696	5.29E-03
820	22.89527	27.38119	3.665732	4.68E-03
822	23.62595	27.05125	3.663865	4.74E-03
824	24.3061	26.85219	3.662265	5.01E-03
826	24.9141	26.61322	3.662201	5.26E-03
828	25.56175	26.34975	3.662755	5.43E-03
830	26.14098	26.00072	3.662286	5.48E-03
832	26.7101	25.62866	3.65927	5.30E-03
834	27.21583	25.34958	3.656372	5.01E-03
836	27.72532	24.94207	3.654757	4.64E-03
838	28.16551	24.63083	3.655589	4.23E-03
840	28.66182	24.36231	3.660034	3.82E-03
